Time[s]    latent_ht[W\m^2]   sens_ht[W\m^2]   thlm[K]   rt[kg\kg]   Press[Pa]    T_sfc[K]
84586.     143.459     51.482      0.        0.           0.          299.27
95386.     63.825      13.389      0.        0.           0.          299.27
106186.    15.088      -3.6478     0.        0.           0.          299.27
116986.    13.579      -4.0764     0.        0.           0.          299.27
127786.    63.744      22.409      0.        0.           0.          299.27
138586.    170.964     61.977      0.        0.           0.          299.27
149386.    271.236     81.271      0.        0.           0.          299.27
160186.    269.895     63.405      0.        0.           0.          299.27
170986.    174.997     32.639      0.        0.           0.          299.27
181786.    81.964      14.174      0.        0.           0.          299.27
192586.    35.05       13.231      0.        0.           0.          299.27
203386.    24.001      12.106      0.        0.           0.          299.27
214186.    49.696      22.63       0.        0.           0.          299.27
224986.    135.481     52.955      0.        0.           0.          299.27
235786.    231.31      79.016      0.        0.           0.          299.27
246586.    249.174     77.733      0.        0.           0.          299.27
257386.    165.338     40.094      0.        0.           0.          299.27
268186.    70.009      12.397      0.        0.           0.          299.27
278986.    9.97        4.1764      0.        0.           0.          299.27
289786.    3.002       6.6159      0.        0.           0.          299.27
300586.    35.275      20.966      0.        0.           0.          299.27
311386.    109.955     47.385      0.        0.           0.          299.27
322186.    197.106     78.131      0.        0.           0.          299.27
332986.    208.541     73.746      0.        0.           0.          299.27
343786.    143.026     51.173      0.        0.           0.          299.27
354586.    57.637      20.137      0.        0.           0.          299.27
365386.    12.829      7.8487      0.        0.           0.          299.27
376186.    10.403      7.6195      0.        0.           0.          299.27
386986.    51.308      24.226      0.        0.           0.          299.27
397786.    150.865     64.271      0.        0.           0.          299.27
408586.    260.596     88.213      0.        0.           0.          299.27
419386.    283.591     82.504      0.        0.           0.          299.27
430186.    193.141     39.525      0.        0.           0.          299.27
440986.    82.104      -0.8004     0.        0.           0.          299.27
451786.    19.198      -24.587     0.        0.           0.          299.27
462586.    9.564       -28.339     0.        0.           0.          299.27
473386.    61.854      -4.9226     0.        0.           0.          299.27
484186.    180.511     35.571      0.        0.           0.          299.27
494986.    309.151     62.4        0.        0.           0.          299.27
505786.    329.83      50.896      0.        0.           0.          299.27
516586.    232.044     27.924      0.        0.           0.          299.27
527386.    122.086     -0.1037     0.        0.           0.          299.27
538186.    65.846      -8.8854     0.        0.           0.          299.27
548986.    59.647      -12.808     0.        0.           0.          299.27
559786.    97.727      8.2299      0.        0.           0.          299.27
570586.    195.615     48.679      0.        0.           0.          299.27
581386.    300.502     77.253      0.        0.           0.          299.27
592186.    313.18      72.295      0.        0.           0.          299.27
602986.    208.235     38.882      0.        0.           0.          299.27
613786.    85.946      8.3001      0.        0.           0.          299.27
624586.    19.219      -5.1179     0.        0.           0.          299.27
635386.    14.424      -10.14      0.        0.           0.          299.27
646186.    65.483      11.244      0.        0.           0.          299.27
656986.    174.273     49.433      0.        0.           0.          299.27
667786.    273.034     85.233      0.        0.           0.          299.27
678586.    276.645     77.426      0.        0.           0.          299.27
689386.    175.571     50.937      0.        0.           0.          299.27
700186.    74.228      19.624      0.        0.           0.          299.27
710986.    24.282      7.5798      0.        0.           0.          299.27
721786.    14.864      2.6888      0.        0.           0.          299.27
732586.    42.182      18.04       0.        0.           0.          299.27
743386.    123.02      67.674      0.        0.           0.          299.27
754186.    222.163     118.38      0.        0.           0.          299.27
764986.    247.058     120.13      0.        0.           0.          299.27
775786.    173.91      74.151      0.        0.           0.          299.27
786586.    84.219      21.033      0.        0.           0.          299.27
797386.    27.861      -1.2995     0.        0.           0.          299.27
808186.    17.94       -4.6632     0.        0.           0.          299.27
818986.    54.819      26.825      0.        0.           0.          299.27
829786.    151.928     82.728      0.        0.           0.          299.27
840586.    252.849     123.27      0.        0.           0.          299.27
851386.    253.302     103.37      0.        0.           0.          299.27
862186.    158.766     58.845      0.        0.           0.          299.27
872986.    54.147      23.376      0.        0.           0.          299.27
883786.    6.249       4.5192      0.        0.           0.          299.27
894586.    3.377       -4.91       0.        0.           0.          299.27
905386.    45.933      10.466      0.        0.           0.          299.27
916186.    144.718     59.765      0.        0.           0.          299.27
926986.    256.327     96.296      0.        0.           0.          299.27
937786.    278.051     87.293      0.        0.           0.          299.27
948586.    196.245     41.245      0.        0.           0.          299.27
959386.    78.557      0.6167      0.        0.           0.          299.27
970186.    3.609       -15.125     0.        0.           0.          299.27
980986.    -18.462     -12.014     0.        0.           0.          299.27
991786.    25.266      11.076      0.        0.           0.          299.27
1002586.   119.129     61.343      0.        0.           0.          299.27
1013386.   227.98      106.03      0.        0.           0.          299.27
1024186.   246.971     104.98      0.        0.           0.          299.27
1034986.   176.07      54.503      0.        0.           0.          299.27
1045786.   65.824      4.8674      0.        0.           0.          299.27
1056586.   -1.646      -19.701     0.        0.           0.          299.27
1067386.   -19.92      -18.935     0.        0.           0.          299.27
1078186.   27.744      1.1099      0.        0.           0.          299.27
1088986.   144.521     42.687      0.        0.           0.          299.27
1099786.   259.763     80.295      0.        0.           0.          299.27
1110586.   280.386     75.12       0.        0.           0.          299.27
1121386.   190.575     36.748      0.        0.           0.          299.27
1132186.   99.523      -7.663      0.        0.           0.          299.27
1142986.   36.174      -20.321     0.        0.           0.          299.27
1153786.   26.294      -17.028     0.        0.           0.          299.27
1164586.   50.196      15.999      0.        0.           0.          299.27
1175386.   145.519     64.168      0.        0.           0.          299.27
1186186.   235.966     99.236      0.        0.           0.          299.27
1196986.   241.046     85.048      0.        0.           0.          299.27
1207786.   161.047     37.843      0.        0.           0.          299.27
1218586.   72.849      -2.8682     0.        0.           0.          299.27
1229386.   30.577      -19.885     0.        0.           0.          299.27
1240186.   19.916      -19.491     0.        0.           0.          299.27
1250986.   54.003      12.14       0.        0.           0.          299.27
1261786.   137.344     61.161      0.        0.           0.          299.27
1272586.   200.239     82.372      0.        0.           0.          299.27
1283386.   186.758     66.35       0.        0.           0.          299.27
1294186.   109.064     29.972      0.        0.           0.          299.27
1304986.   52.651      9.325       0.        0.           0.          299.27
1315786.   25.305      -3.6869     0.        0.           0.          299.27
1326586.   26.093      -5.9024     0.        0.           0.          299.27
1337386.   40.982      3.2047      0.        0.           0.          299.27
1348186.   93.144      33.811      0.        0.           0.          299.27
1358986.   144.046     60.572      0.        0.           0.          299.27
1369786.   161.298     60.946      0.        0.           0.          299.27
1380586.   119.972     35.025      0.        0.           0.          299.27
1391386.   63.688      2.5509      0.        0.           0.          299.27
1402186.   29.621      -10.726     0.        0.           0.          299.27
1412986.   22.043      -13.763     0.        0.           0.          299.27
1423786.   65.391      10.372      0.        0.           0.          299.27
1434586.   154.606     61.803      0.        0.           0.          299.27
1445386.   250.485     102.37      0.        0.           0.          299.27
1456186.   267.503     94.098      0.        0.           0.          299.27
1466986.   189.005     45.75       0.        0.           0.          299.27
1477786.   93.769      1.5681      0.        0.           0.          299.27
1488586.   29.7        -15.116     0.        0.           0.          299.27
1499386.   11.354      -12.625     0.        0.           0.          299.27
1510186.   52.806      15.506      0.        0.           0.          299.27
1520986.   159.789     62.299      0.        0.           0.          299.27
1531786.   276.499     95.878      0.        0.           0.          299.27
1542586.   289.025     91.362      0.        0.           0.          299.27
1553386.   194.482     54.549      0.        0.           0.          299.27
1564186.   86.27       23.048      0.        0.           0.          299.27
1574986.   38.549      4.7468      0.        0.           0.          299.27
1585786.   38.655      -0.3242     0.        0.           0.          299.27
1596586.   76.322      19.907      0.        0.           0.          299.27
1607386.   166.486     64.903      0.        0.           0.          299.27
1618186.   254.97      105.68      0.        0.           0.          299.27
1628986.   256.294     95.948      0.        0.           0.          299.27
1639786.   155.884     56.917      0.        0.           0.          299.27
1650586.   51.517      11.766      0.        0.           0.          299.27
1661386.   0.827       -7.9195     0.        0.           0.          299.27
1672186.   -3.76       -9.8301     0.        0.           0.          299.27
1682986.   21.108      2.4133      0.        0.           0.          299.27
1693786.   80.335      17.202      0.        0.           0.          299.27
1704586.   179.38      33.083      0.        0.           0.          299.27
1715386.   221.197     31.889      0.        0.           0.          299.27
1726186.   175.795     26.014      0.        0.           0.          299.27
1736986.   85.618      7.459       0.        0.           0.          299.27
1747786.   19.827      -4.4292     0.        0.           0.          299.27
1758586.   13.859      -12.215     0.        0.           0.          299.27
1769386.   55.993      1.4658      0.        0.           0.          299.27
1780186.   165.301     36.828      0.        0.           0.          299.27
1790986.   277.578     65.509      0.        0.           0.          299.27
1801786.   296.44      57.468      0.        0.           0.          299.27
1812586.   198.821     25.076      0.        0.           0.          299.27
1823386.   85.317      -2.0743     0.        0.           0.          299.27
1834186.   15.691      -9.2626     0.        0.           0.          299.27
1844986.   5.65        -6.215      0.        0.           0.          299.27
1855786.   33.011      6.4755      0.        0.           0.          299.27
1866586.   128.932     40.451      0.        0.           0.          299.27
1877386.   228.04      76.275      0.        0.           0.          299.27
1888186.   296.966     106.15      0.        0.           0.          299.27
1985386.   303.082     112.1       0.        0.           0.          299.27
